#Digilent WaveForms Impedance Analyzer
#Device Name: Discovery2
#Serial Number: SN:210321A364C9
#Date Time: 
#Digilent WaveForms Impedance Analyzer Trace#Trace: Trace
#Start: 20 Hz
#Stop: 20000 Hz
#Steps: 201
#Resistor: 1000 O
#Average: 1
#ProbeResistance: 1.04e+06 O
#ProbeCapacitance: 4.3e-11 F
#Compensation:none
#Wavegen: Wavegen1
#Amplitude: 1.736 V
#Offset: 0 V
#Amplification: 1 X
#Settle: 0.01 s
#MinPeriods: 16
#Scale: Logarithmic
#Channel: Channel 1
#Range: 5.5024 V
#Offset: -1.4451e-05 V
#Attenuation: 1 X
#Channel: Channel 2
#Range: 5.48701 V
#Offset: -0.000319257 V
#Attenuation: 1 X

Frequency (Hz),Trace |Z| (Ohm)
20.00000000000002,76051584.44769941
20.70284333358691,34725567.8826537
21.43038610475214,60596177.5744326
22.18349630524804,69203005.47583608
22.96307242993768,58597206.73242281
23.7700445487404,35930979.24747504
24.60537541624765,106456890.7229177
25.47006162033326,63719202.40154454
26.36513477112818,44468482.5632544
27.29166273177853,35906815.80623003
28.25075089245511,56867205.09101614
29.2435434891344,38991296.61542824
30.2712249687242,33819343.53143262
31.335021402163,42220674.13337836
32.43620194717863,42580603.91161383
33.57608036245121,95343451.7355177
34.75601657498753,74548414.10893978
35.97741830257578,155135276.8469131
37.24174273325739,69832545.42296977
38.55049826381873,54753854.42105147
39.90524629937762,101120521.0481376
41.30760311621062,43859962.82391948
42.7592417900447,46161904.90668534
44.26189419211277,74445510.25322677
45.81735305535549,47216188.4686185
47.42747411323315,53649875.96832354
49.09417831370067,75486240.20588365
50.81945411098613,188420724.8323399
52.60535983790768,88377692.89277156
54.4540261615583,191798766.5116049
56.36765862528916,62776669.38444357
58.34854028002338,90549829.86004713
60.39903440804039,103163858.4532655
62.52158734247917,47180863.72148971
64.71873138592575,77991401.50871798
66.99308783156559,69554514.78141481
69.34737009050633,30394058.43053398
71.78438692900114,67421841.49260908
74.30704581943456,61232536.5280327
76.91835640907078,68540328.71570073
79.62143411069947,83334187.59285904
82.41950381946607,125153414.559907
85.31590376031861,57261207.09388831
88.31408947066259,87233331.55999397
91.41763792297505,62026142.68317307
94.63025179229615,58911736.76293274
97.95576387368932,58994156.48585075
101.398141654941,42078692.15461373
104.9614920499546,67339337.98184521
108.6500662984867,57257917.32268088
112.4682650380699,47896870.82149976
116.4206435541743,48810696.51300589
120.5119172148716,52050637.61620731
124.746967096484,58507495.5534372
129.1308458069313,46090968.92548448
133.668783513723,52646404.90740085
138.3661941837874,54546877.10107981
143.2286820425804,36317826.30250512
148.2620482601837,59944110.13878406
153.4722978723639,42541168.58968744
158.8656469448564,39578194.91167255
164.4485299894143,28657641.66860085
170.2276076404755,50416285.99553302
176.209774601603,105424822.5187965
182.4021678711821,83034861.49408455
188.8121752571847,69948405.60108243
195.4474441911624,81167064.50572254
202.3158908519798,52234861.73511235
209.4257096101801,55850006.17950686
216.7853828042408,45586199.49247213
224.4036908603928,42327564.28509682
232.2897227680686,31101469.73186651
240.4528869234827,36276554.95491853
248.9029223542771,46492383.71624722
257.649910338627,36508073.10965403
266.704286432665,35782206.50593833
276.0768529205772,33927770.67161202
285.7787917022208,47711971.81262924
295.8216776336417,48442230.90015768
306.2174923364062,55221298.33748776
316.978638492223,57381103.42074206
328.1179546399081,39260074.10071003
339.6487304923489,35453163.40350964
351.5847227917388,31287290.54752909
363.9401717219967,29827704.91996666
376.7298178979604,31435267.02631159
389.9689199516091,33373489.87752713
403.6732727363126,38723666.16829683
417.8592261708079,28770233.41657523
432.5437047454045,28492019.27848764
447.744227713668,40406142.62430502
463.4789299936962,38698086.9457869
479.7665838038982,38420364.57952359
496.6266210591145,36160118.12542358
514.0791565537729,46171062.45117147
532.1450119597622,33731395.69932143
550.8457406676334,29980788.27737993
570.2036535007823,28010614.02730068
590.2418453332774,32989807.46106395
610.9842226431031,25070305.15872716
632.4555320336763,23131864.38166572
654.6813897576766,37473322.05421335
677.6883122784055,30005204.14671752
701.5037479051363,21436378.05475958
726.1561095402031,24103466.26831948
751.6748085768886,17961083.5777887
778.0902899885618,23143611.63585916
805.4340686509186,24078031.02981101
833.7387669406713,29383173.08321673
863.0381536555309,21264730.46514444
893.367184301927,23639987.48973143
924.7620427985212,23735690.24924308
957.2601846452776,23818343.03318825
990.9003816095806,20263606.9308096
1025.72276798273,14972895.95228842
1061.768888461977,19767688.1464659
1099.081747715249,15052170.18153766
1137.705861687683,16553899.51333339
1177.687310711178,16604770.79559121
1219.073794480339,13916353.34211455
1261.914688960387,12589498.44714461
1306.261105294945,12369744.74604422
1352.165950783964,16978181.27681885
1399.683992004547,12873406.80004685
1448.87192014998,13245977.92303456
1499.788418664912,11351788.44982824
1552.494233257384,11242601.81461034
1607.052244371235,13016919.21802494
1663.527542205343,12492890.22723905
1721.987504369202,12513976.53214522
1782.501876267492,9149325.853878096
1845.142854309528,12169484.53719858
1909.985172042873,8926894.883378917
1977.106189313879,8246086.288250747
2046.58598456151,10393505.61007889
2118.507450354579,9921444.419732386
2192.956392286371,8239811.80900638
2270.021631344631,8450042.951462584
2349.795109879059,7793228.868494393
2432.372001292736,8278512.955291839
2517.850823588335,7522878.397665842
2606.333556904598,7583642.928271216
2697.925765183307,6448719.927074144
2792.736722111875,7035114.360220019
2890.879541491855,6625839.746915928
2992.471312188867,5698228.984150151
3097.633237824963,6298593.070444626
3206.490781380084,5825807.780716059
3319.173814875122,6337694.509748671
3435.816774315177,5878335.942356117
3556.558820077847,5321718.360110052
3681.544002937912,5423413.380647573
3810.921435926495,4689702.917370735
3944.845472229709,4946298.145800223
4083.47588933906,4783142.866972522
4226.978079673296,4602348.113386997
4375.523247899107,4429918.631208506
4529.288615186122,4306134.051430119
4688.457630639847,4066386.177590583
4853.220190164833,3749454.618261193
5023.772863019163,3527682.196893522
5200.319126330547,3340077.915592899
5383.069607853834,3462350.796716011
5572.242337259539,3433949.349432002
5768.063006253211,3298688.078778472
5970.765237835919,3299178.084953251
6180.590865027181,2874860.499729764
6397.790219382795,2808441.346960433
6622.622429651821,2677396.521796418
6855.355730929007,2742396.499941739
7096.26778467151,2585150.281719165
7345.646009961693,2421907.228719133
7603.787926411224,2101126.414870715
7871.001509115549,2257657.972052794
8147.605556082256,2232404.790788644
8433.930068571646,2177233.023208171
8730.316644803321,1984768.382718842
9037.118887498449,2014264.521490558
9354.702825743965,1921568.723818761
9683.447351681989,1780550.654389487
10023.74467254545,1762391.314248933
10376.00077857923,1688082.438757405
10740.63592740506,1628018.737407828
11118.08514540808,1661018.930048275
11508.79874674314,1485792.369400256
11913.24287058021,1456290.457912211
12331.90003722965,1476207.736367659
12765.26972381098,1350118.693039076
13213.86896015192,1298046.199231215
13678.23294562858,1258253.98234291
14158.91568768275,1237157.405108463
14656.49066277808,1202969.989191447
15171.55150058367,1161448.308741709
15704.71269220143,1103040.362666797
16256.61032328198,1086401.63535465
16827.9028329039,1044382.755518656
17419.27179912161,1007672.582187287
18031.42275211914,994021.4768789334
18665.08601593982,934989.7344215473
19321.01757979627,931055.6458958095
20000,871515.3969546716
